/////////////////////////////////////////////////////////////////////////////////
/// Profile Data Ascii Dump (XRD)                                             ///
/////////////////////////////////////////////////////////////////////////////////

  Group     : 2019_05_08_Caio
  Data      : PNMoida
  File Name : PNMoida.RAW

# Profile Datafile
          comment             =  
          date & time         = 05-09-19 11:43:58 

# Measurement Condition
    X-ray tube
          target              = Cu 
          voltage             = 40.0 (kV)
          current             = 40.0 (mA)
    Slits
          divergence slit     = 1.00000 (mm)  
          scatter slit        = 1.00000 (mm)  
          receiving slit      = 0.30000 (mm)  
    Scanning
          drive axis          = Theta-2Theta 
          scan range          =    5.000 -  120.000 
          scan mode           = Continuous Scan 
          scan speed          =   2.0000 (deg/min) 
          sampling pitch      =   0.0200 (deg) 
          preset time         =   0.60 (sec) 

# Data      [ Total No. = 5751 ]
  <2Theta>   <   I   >
     5.0000        34
     5.0200        18
     5.0400        26
     5.0600        32
     5.0800        24
     5.1000        28
     5.1200        30
     5.1400        28
     5.1600        26
     5.1800        24
     5.2000        28
     5.2200        32
     5.2400        30
     5.2600        30
     5.2800        34
     5.3000        20
     5.3200        32
     5.3400        28
     5.3600        30
     5.3800        32
     5.4000        42
     5.4200        36
     5.4400        26
     5.4600        22
     5.4800        30
     5.5000        36
     5.5200        22
     5.5400        24
     5.5600        34
     5.5800        32
     5.6000        28
     5.6200        28
     5.6400        32
     5.6600        28
     5.6800        28
     5.7000        28
     5.7200        30
     5.7400        30
     5.7600        28
     5.7800        30
     5.8000        26
     5.8200        18
     5.8400        26
     5.8600        22
     5.8800        28
     5.9000        28
     5.9200        30
     5.9400        38
     5.9600        30
     5.9800        18
     6.0000        26
     6.0200        40
     6.0400        36
     6.0600        32
     6.0800        26
     6.1000        22
     6.1200        32
     6.1400        34
     6.1600        30
     6.1800        20
     6.2000        28
     6.2200        28
     6.2400        30
     6.2600        22
     6.2800        28
     6.3000        22
     6.3200        30
     6.3400        30
     6.3600        28
     6.3800        22
     6.4000        32
     6.4200        38
     6.4400        22
     6.4600        22
     6.4800        20
     6.5000        20
     6.5200        22
     6.5400        26
     6.5600        30
     6.5800        34
     6.6000        34
     6.6200        24
     6.6400        30
     6.6600        28
     6.6800        28
     6.7000        26
     6.7200        28
     6.7400        26
     6.7600        30
     6.7800        38
     6.8000        34
     6.8200        32
     6.8400        26
     6.8600        28
     6.8800        28
     6.9000        34
     6.9200        24
     6.9400        12
     6.9600        20
     6.9800        32
     7.0000        24
     7.0200        34
     7.0400        24
     7.0600        24
     7.0800        18
     7.1000        28
     7.1200        24
     7.1400        24
     7.1600        24
     7.1800        30
     7.2000        22
     7.2200        16
     7.2400        22
     7.2600        16
     7.2800        22
     7.3000        24
     7.3200        38
     7.3400        26
     7.3600        30
     7.3800        28
     7.4000        30
     7.4200        26
     7.4400        28
     7.4600        26
     7.4800        36
     7.5000        32
     7.5200        18
     7.5400        32
     7.5600        32
     7.5800        32
     7.6000        24
     7.6200        16
     7.6400        28
     7.6600        30
     7.6800        28
     7.7000        26
     7.7200        30
     7.7400        34
     7.7600        30
     7.7800        18
     7.8000        30
     7.8200        28
     7.8400        20
     7.8600        30
     7.8800        26
     7.9000        28
     7.9200        34
     7.9400        30
     7.9600        26
     7.9800        40
     8.0000        24
     8.0200        30
     8.0400        20
     8.0600        32
     8.0800        26
     8.1000        24
     8.1200        26
     8.1400        30
     8.1600        32
     8.1800        28
     8.2000        30
     8.2200        28
     8.2400        40
     8.2600        44
     8.2800        28
     8.3000        32
     8.3200        38
     8.3400        26
     8.3600        40
     8.3800        32
     8.4000        26
     8.4200        28
     8.4400        40
     8.4600        36
     8.4800        18
     8.5000        30
     8.5200        40
     8.5400        32
     8.5600        26
     8.5800        34
     8.6000        28
     8.6200        24
     8.6400        26
     8.6600        44
     8.6800        34
     8.7000        36
     8.7200        32
     8.7400        36
     8.7600        30
     8.7800        50
     8.8000        30
     8.8200        36
     8.8400        28
     8.8600        28
     8.8800        54
     8.9000        42
     8.9200        38
     8.9400        40
     8.9600        34
     8.9800        32
     9.0000        36
     9.0200        42
     9.0400        32
     9.0600        42
     9.0800        38
     9.1000        38
     9.1200        30
     9.1400        38
     9.1600        32
     9.1800        36
     9.2000        30
     9.2200        34
     9.2400        32
     9.2600        32
     9.2800        40
     9.3000        40
     9.3200        34
     9.3400        40
     9.3600        28
     9.3800        30
     9.4000        38
     9.4200        34
     9.4400        36
     9.4600        28
     9.4800        26
     9.5000        22
     9.5200        30
     9.5400        34
     9.5600        30
     9.5800        42
     9.6000        42
     9.6200        28
     9.6400        30
     9.6600        36
     9.6800        44
     9.7000        30
     9.7200        36
     9.7400        28
     9.7600        30
     9.7800        28
     9.8000        30
     9.8200        42
     9.8400        32
     9.8600        38
     9.8800        34
     9.9000        34
     9.9200        36
     9.9400        34
     9.9600        26
     9.9800        30
    10.0000        26
    10.0200        38
    10.0400        36
    10.0600        32
    10.0800        28
    10.1000        32
    10.1200        36
    10.1400        32
    10.1600        38
    10.1800        42
    10.2000        42
    10.2200        32
    10.2400        32
    10.2600        32
    10.2800        36
    10.3000        24
    10.3200        24
    10.3400        28
    10.3600        32
    10.3800        24
    10.4000        30
    10.4200        32
    10.4400        32
    10.4600        36
    10.4800        36
    10.5000        34
    10.5200        26
    10.5400        32
    10.5600        36
    10.5800        22
    10.6000        26
    10.6200        36
    10.6400        28
    10.6600        24
    10.6800        24
    10.7000        32
    10.7200        38
    10.7400        30
    10.7600        26
    10.7800        28
    10.8000        44
    10.8200        34
    10.8400        46
    10.8600        38
    10.8800        30
    10.9000        32
    10.9200        28
    10.9400        34
    10.9600        36
    10.9800        30
    11.0000        32
    11.0200        34
    11.0400        28
    11.0600        30
    11.0800        28
    11.1000        38
    11.1200        50
    11.1400        22
    11.1600        40
    11.1800        34
    11.2000        24
    11.2200        40
    11.2400        42
    11.2600        34
    11.2800        30
    11.3000        40
    11.3200        28
    11.3400        30
    11.3600        48
    11.3800        22
    11.4000        34
    11.4200        32
    11.4400        32
    11.4600        32
    11.4800        46
    11.5000        40
    11.5200        40
    11.5400        34
    11.5600        28
    11.5800        32
    11.6000        26
    11.6200        32
    11.6400        34
    11.6600        38
    11.6800        22
    11.7000        28
    11.7200        30
    11.7400        38
    11.7600        28
    11.7800        38
    11.8000        28
    11.8200        30
    11.8400        44
    11.8600        32
    11.8800        40
    11.9000        36
    11.9200        24
    11.9400        32
    11.9600        44
    11.9800        34
    12.0000        32
    12.0200        34
    12.0400        42
    12.0600        34
    12.0800        32
    12.1000        38
    12.1200        36
    12.1400        36
    12.1600        44
    12.1800        30
    12.2000        52
    12.2200        44
    12.2400        38
    12.2600        34
    12.2800        36
    12.3000        40
    12.3200        36
    12.3400        42
    12.3600        36
    12.3800        32
    12.4000        44
    12.4200        46
    12.4400        44
    12.4600        38
    12.4800        32
    12.5000        38
    12.5200        46
    12.5400        66
    12.5600        44
    12.5800        38
    12.6000        30
    12.6200        50
    12.6400        42
    12.6600        44
    12.6800        40
    12.7000        42
    12.7200        42
    12.7400        32
    12.7600        36
    12.7800        44
    12.8000        40
    12.8200        36
    12.8400        46
    12.8600        40
    12.8800        48
    12.9000        46
    12.9200        42
    12.9400        38
    12.9600        46
    12.9800        56
    13.0000        58
    13.0200        48
    13.0400        44
    13.0600        38
    13.0800        46
    13.1000        46
    13.1200        38
    13.1400        56
    13.1600        52
    13.1800        44
    13.2000        46
    13.2200        38
    13.2400        40
    13.2600        48
    13.2800        34
    13.3000        58
    13.3200        52
    13.3400        46
    13.3600        48
    13.3800        38
    13.4000        42
    13.4200        54
    13.4400        44
    13.4600        44
    13.4800        68
    13.5000        34
    13.5200        48
    13.5400        44
    13.5600        50
    13.5800        56
    13.6000        44
    13.6200        42
    13.6400        54
    13.6600        40
    13.6800        40
    13.7000        48
    13.7200        60
    13.7400        50
    13.7600        56
    13.7800        52
    13.8000        46
    13.8200        54
    13.8400        54
    13.8600        54
    13.8800        56
    13.9000        54
    13.9200        54
    13.9400        44
    13.9600        46
    13.9800        54
    14.0000        52
    14.0200        62
    14.0400        60
    14.0600        48
    14.0800        46
    14.1000        48
    14.1200        66
    14.1400        54
    14.1600        60
    14.1800        66
    14.2000        54
    14.2200        56
    14.2400        52
    14.2600        36
    14.2800        62
    14.3000        50
    14.3200        66
    14.3400        50
    14.3600        44
    14.3800        46
    14.4000        58
    14.4200        60
    14.4400        52
    14.4600        68
    14.4800        74
    14.5000        58
    14.5200        64
    14.5400        68
    14.5600        58
    14.5800        46
    14.6000        70
    14.6200        56
    14.6400        48
    14.6600        48
    14.6800        62
    14.7000        52
    14.7200        64
    14.7400        66
    14.7600        60
    14.7800        56
    14.8000        66
    14.8200        60
    14.8400        66
    14.8600        60
    14.8800        68
    14.9000        64
    14.9200        54
    14.9400        54
    14.9600        64
    14.9800        62
    15.0000        58
    15.0200        70
    15.0400        56
    15.0600        54
    15.0800        50
    15.1000        52
    15.1200        56
    15.1400        54
    15.1600        50
    15.1800        60
    15.2000        48
    15.2200        76
    15.2400        52
    15.2600        54
    15.2800        60
    15.3000        58
    15.3200        72
    15.3400        58
    15.3600        68
    15.3800        50
    15.4000        60
    15.4200        48
    15.4400        58
    15.4600        54
    15.4800        62
    15.5000        84
    15.5200        52
    15.5400        72
    15.5600        78
    15.5800        76
    15.6000        64
    15.6200        68
    15.6400        66
    15.6600        60
    15.6800        74
    15.7000        80
    15.7200        70
    15.7400        56
    15.7600        72
    15.7800        66
    15.8000        68
    15.8200        64
    15.8400        70
    15.8600        66
    15.8800        70
    15.9000        66
    15.9200        84
    15.9400        64
    15.9600        74
    15.9800        86
    16.0000        66
    16.0200        80
    16.0400        62
    16.0600        52
    16.0800        76
    16.1000        66
    16.1200        80
    16.1400        74
    16.1600        70
    16.1800        66
    16.2000        62
    16.2200        62
    16.2400        72
    16.2600        70
    16.2800        62
    16.3000        88
    16.3200        74
    16.3400        72
    16.3600        84
    16.3800        66
    16.4000        94
    16.4200        88
    16.4400        96
    16.4600        86
    16.4800       108
    16.5000        76
    16.5200       112
    16.5400        84
    16.5600       104
    16.5800       124
    16.6000        94
    16.6200       128
    16.6400       110
    16.6600        96
    16.6800       100
    16.7000       106
    16.7200        98
    16.7400        92
    16.7600        86
    16.7800        84
    16.8000        62
    16.8200        68
    16.8400        58
    16.8600        58
    16.8800        66
    16.9000        66
    16.9200        70
    16.9400        62
    16.9600        52
    16.9800        64
    17.0000        68
    17.0200        52
    17.0400        70
    17.0600        70
    17.0800        58
    17.1000        64
    17.1200        62
    17.1400        62
    17.1600        54
    17.1800        54
    17.2000        64
    17.2200        62
    17.2400        58
    17.2600        56
    17.2800        64
    17.3000        54
    17.3200        54
    17.3400        68
    17.3600        72
    17.3800        50
    17.4000        56
    17.4200        70
    17.4400        64
    17.4600        58
    17.4800        50
    17.5000        74
    17.5200        44
    17.5400        50
    17.5600        56
    17.5800        72
    17.6000        50
    17.6200        70
    17.6400        58
    17.6600        68
    17.6800        52
    17.7000        78
    17.7200        70
    17.7400        52
    17.7600        50
    17.7800        62
    17.8000        50
    17.8200        44
    17.8400        62
    17.8600        54
    17.8800        64
    17.9000        64
    17.9200        54
    17.9400        66
    17.9600        64
    17.9800        58
    18.0000        72
    18.0200        84
    18.0400        62
    18.0600        62
    18.0800        50
    18.1000        58
    18.1200        66
    18.1400        64
    18.1600        52
    18.1800        52
    18.2000        56
    18.2200        50
    18.2400        62
    18.2600        58
    18.2800        48
    18.3000        58
    18.3200        60
    18.3400        76
    18.3600        60
    18.3800        82
    18.4000        64
    18.4200        64
    18.4400        56
    18.4600        70
    18.4800        76
    18.5000        72
    18.5200        62
    18.5400        72
    18.5600        68
    18.5800        48
    18.6000        66
    18.6200        56
    18.6400        74
    18.6600        64
    18.6800        70
    18.7000        62
    18.7200        60
    18.7400        78
    18.7600        68
    18.7800        64
    18.8000        60
    18.8200        60
    18.8400        62
    18.8600        60
    18.8800        64
    18.9000        68
    18.9200        82
    18.9400        68
    18.9600        68
    18.9800        66
    19.0000        58
    19.0200        68
    19.0400        72
    19.0600        82
    19.0800        58
    19.1000        68
    19.1200        72
    19.1400        76
    19.1600        70
    19.1800        52
    19.2000        82
    19.2200        76
    19.2400        94
    19.2600        74
    19.2800        72
    19.3000        78
    19.3200        68
    19.3400        86
    19.3600        56
    19.3800        70
    19.4000        64
    19.4200        68
    19.4400        70
    19.4600        94
    19.4800        66
    19.5000        80
    19.5200        64
    19.5400        88
    19.5600        68
    19.5800        82
    19.6000        70
    19.6200        72
    19.6400        66
    19.6600        74
    19.6800        66
    19.7000        92
    19.7200        84
    19.7400        88
    19.7600        74
    19.7800        80
    19.8000        90
    19.8200        72
    19.8400        72
    19.8600        88
    19.8800        78
    19.9000        68
    19.9200        58
    19.9400        82
    19.9600        90
    19.9800        74
    20.0000        72
    20.0200        72
    20.0400        70
    20.0600        80
    20.0800        86
    20.1000        80
    20.1200        76
    20.1400        76
    20.1600        78
    20.1800        88
    20.2000        68
    20.2200        90
    20.2400        84
    20.2600        70
    20.2800        86
    20.3000        76
    20.3200        84
    20.3400        76
    20.3600        86
    20.3800        80
    20.4000        80
    20.4200        90
    20.4400        72
    20.4600        76
    20.4800        92
    20.5000        70
    20.5200        64
    20.5400        74
    20.5600        88
    20.5800        80
    20.6000        82
    20.6200        86
    20.6400        60
    20.6600        74
    20.6800        76
    20.7000        72
    20.7200        82
    20.7400        92
    20.7600        82
    20.7800        70
    20.8000        72
    20.8200        72
    20.8400        86
    20.8600        74
    20.8800        78
    20.9000        72
    20.9200        84
    20.9400        86
    20.9600        84
    20.9800        64
    21.0000        80
    21.0200        90
    21.0400        84
    21.0600        90
    21.0800        74
    21.1000        78
    21.1200        84
    21.1400        90
    21.1600        84
    21.1800        82
    21.2000        96
    21.2200        90
    21.2400        68
    21.2600        90
    21.2800        70
    21.3000        66
    21.3200        90
    21.3400        80
    21.3600        88
    21.3800        86
    21.4000        84
    21.4200        78
    21.4400        88
    21.4600        62
    21.4800       100
    21.5000        78
    21.5200        72
    21.5400        86
    21.5600        58
    21.5800        86
    21.6000        72
    21.6200        72
    21.6400        82
    21.6600        70
    21.6800        76
    21.7000        78
    21.7200        72
    21.7400        68
    21.7600        78
    21.7800        64
    21.8000        84
    21.8200        76
    21.8400        80
    21.8600        90
    21.8800        70
    21.9000        72
    21.9200        68
    21.9400        76
    21.9600        76
    21.9800        80
    22.0000        72
    22.0200        78
    22.0400        68
    22.0600        90
    22.0800        74
    22.1000        78
    22.1200        74
    22.1400        80
